Frequency (MHz),Antenna Factor (dB/m)
290,13.0
300,13.0
325,14.0
350,14.2
375,15.2
400,15.9
425,15.9
450,16.7
475,17.0
500,17.5
525,18.3
550,19.2
575,20.2
600,18.9
625,19.2
650,19.8
675,19.6
700,20.4
725,20.0
750,20.6
775,19.9
800,21.1
825,21.1
850,21.4
875,21.8
900,21.7
925,22.4
950,22.9
975,22.9
1000,22.8
1100,24.3
1200,24.9
1300,25.7
1400,26.2
1500,27.3
1600,27.9
1700,28.7
1800,29.7
1900,30.7
2000,31.3