Frequency (MHz),Attenuation (dB)
20,0.17
50,0.20
100,0.20
200,0.30
500,0.44
1000,0.61
1500,0.72
2000,0.84
2500,0.94
3000,1.03
3500,1.13
4000,1.22
4500,1.30
5000,1.37
5500,1.46
6000,1.50
6500,1.59
7000,1.67
7500,1.72
8000,1.77
8500,1.82
9000,1.88
9500,1.93
10000,1.95
10500,2.01
11000,2.06
11500,2.12
12000,2.15
12500,2.20
13000,2.24
13500,2.28
14000,2.33
14500,2.36
15000,2.41
15500,2.45
16000,2.49
16500,2.51
17000,2.54
17500,2.57
18000,2.58